wavelength(AA)   flux(mJy)   unc(mJy)   resolution(km/s)
4000.000     0.4480   0.0421   300.0
4001.000     0.4188   0.0433   299.9
4002.000     0.3987   0.0436   299.9
4003.000     0.4631   0.0437   299.8
4004.000     0.3489   0.0437   299.7
4005.000     0.4697   0.0437   299.7
4006.000     0.4609   0.0438   299.6
4007.000     0.4128   0.0439   299.6
4008.000     0.4487   0.0440   299.5
4009.000     0.4092   0.0443   299.4
4010.000     0.4043   0.0446   299.4
4011.000     0.4924   0.0449   299.3
4012.000     0.4617   0.0453   299.2
4013.000     0.5468   0.0457   299.2
4014.000     0.5794   0.0460   299.1
4015.000     0.4938   0.0462   299.0
4016.000     0.4785   0.0464   299.0
4017.000     0.5453   0.0466   298.9
4018.000     0.3880   0.0468   298.8
4019.000     0.4146   0.0469   298.8
4020.000     0.4635   0.0470   298.7
4021.000     0.4888   0.0470   298.7
4022.000     0.4787   0.0471   298.6
4023.000     0.4797   0.0471   298.5
4024.000     0.5089   0.0471   298.5
4025.000     0.4739   0.0470   298.4
4026.000     0.4995   0.0470   298.3
4027.000     0.4834   0.0468   298.3
4028.000     0.4426   0.0466   298.2
4029.000     0.4279   0.0463   298.1
4030.000     0.4161   0.0459   298.1
4031.000     0.4783   0.0456   298.0
4032.000     0.4484   0.0454   298.0
4033.000     0.5385   0.0452   297.9
4034.000     0.4639   0.0453   297.8
4035.000     0.5464   0.0455   297.8
4036.000     0.4136   0.0459   297.7
4037.000     0.4729   0.0464   297.6
4038.000     0.4150   0.0468   297.6
4039.000     0.4717   0.0472   297.5
4040.000     0.5220   0.0473   297.4
4041.000     0.4658   0.0473   297.4
4042.000     0.4697   0.0471   297.3
4043.000     0.4982   0.0468   297.2
4044.000     0.5640   0.0464   297.2
4045.000     0.4324   0.0461   297.1
4046.000     0.4236   0.0458   297.1
4047.000     0.4417   0.0458   297.0
4048.000     0.4652   0.0459   296.9
4049.000     0.4387   0.0461   296.9
4050.000     0.4896   0.0464   296.8
4051.000     0.5142   0.0466   296.7
4052.000     0.4251   0.0468   296.7
4053.000     0.5568   0.0469   296.6
4054.000     0.4159   0.0469   296.5
4055.000     0.4965   0.0468   296.5
4056.000     0.4842   0.0466   296.4
4057.000     0.5609   0.0464   296.4
4058.000     0.4448   0.0462   296.3
4059.000     0.4710   0.0460   296.2
4060.000     0.4900   0.0459   296.2
4061.000     0.5045   0.0457   296.1
4062.000     0.4544   0.0456   296.0
4063.000     0.5430   0.0455   296.0
4064.000     0.4085   0.0454   295.9
4065.000     0.4205   0.0454   295.8
4066.000     0.4634   0.0455   295.8
4067.000     0.4229   0.0456   295.7
4068.000     0.3948   0.0458   295.6
4069.000     0.5281   0.0460   295.6
4070.000     0.5057   0.0461   295.5
4071.000     0.3631   0.0462   295.5
4072.000     0.5076   0.0462   295.4
4073.000     0.5154   0.0461   295.3
4074.000     0.4106   0.0459   295.3
4075.000     0.5154   0.0456   295.2
4076.000     0.3877   0.0454   295.1
4077.000     0.4308   0.0453   295.1
4078.000     0.4457   0.0453   295.0
4079.000     0.4763   0.0454   294.9
4080.000     0.4747   0.0457   294.9
4081.000     0.4708   0.0461   294.8
4082.000     0.4253   0.0465   294.8
4083.000     0.5424   0.0470   294.7
4084.000     0.5065   0.0475   294.6
4085.000     0.4538   0.0480   294.6
4086.000     0.4564   0.0484   294.5
4087.000     0.5564   0.0488   294.4
4088.000     0.5223   0.0491   294.4
4089.000     0.4482   0.0493   294.3
4090.000     0.4740   0.0493   294.2
4091.000     0.5425   0.0492   294.2
4092.000     0.3922   0.0489   294.1
4093.000     0.4412   0.0483   294.0
4094.000     0.5096   0.0475   294.0
4095.000     0.4086   0.0466   293.9
4096.000     0.5271   0.0454   293.9
4097.000     0.3924   0.0442   293.8
4098.000     0.3694   0.0429   293.7
4099.000     0.3611   0.0416   293.7
4100.000     0.4075   0.0406   293.6
4101.000     0.3814   0.0398   293.5
4102.000     0.3627   0.0393   293.5
4103.000     0.3967   0.0392   293.4
4104.000     0.3637   0.0396   293.3
4105.000     0.4122   0.0402   293.3
4106.000     0.4376   0.0411   293.2
4107.000     0.4365   0.0421   293.2
4108.000     0.3855   0.0432   293.1
4109.000     0.4827   0.0443   293.0
4110.000     0.4597   0.0452   293.0
4111.000     0.4993   0.0461   292.9
4112.000     0.5141   0.0468   292.8
4113.000     0.4564   0.0475   292.8
4114.000     0.5178   0.0480   292.7
4115.000     0.4503   0.0485   292.6
4116.000     0.5165   0.0488   292.6
4117.000     0.4107   0.0490   292.5
4118.000     0.5248   0.0492   292.4
4119.000     0.4935   0.0492   292.4
4120.000     0.4098   0.0492   292.3
4121.000     0.5089   0.0492   292.3
4122.000     0.4664   0.0493   292.2
4123.000     0.5971   0.0493   292.1
4124.000     0.5027   0.0493   292.1
4125.000     0.6064   0.0493   292.0
4126.000     0.5284   0.0492   291.9
4127.000     0.4491   0.0492   291.9
4128.000     0.5050   0.0490   291.8
4129.000     0.5001   0.0488   291.7
4130.000     0.5283   0.0486   291.7
4131.000     0.4091   0.0485   291.6
4132.000     0.4717   0.0484   291.6
4133.000     0.4563   0.0484   291.5
4134.000     0.4975   0.0486   291.4
4135.000     0.4987   0.0489   291.4
4136.000     0.5087   0.0493   291.3
4137.000     0.5300   0.0496   291.2
4138.000     0.4912   0.0500   291.2
4139.000     0.5415   0.0502   291.1
4140.000     0.4841   0.0503   291.0
4141.000     0.4822   0.0503   291.0
4142.000     0.5184   0.0501   290.9
4143.000     0.5088   0.0499   290.8
4144.000     0.4479   0.0497   290.8
4145.000     0.6056   0.0495   290.7
4146.000     0.4463   0.0494   290.7
4147.000     0.4191   0.0494   290.6
4148.000     0.5511   0.0495   290.5
4149.000     0.5221   0.0496   290.5
4150.000     0.5161   0.0497   290.4
4151.000     0.4657   0.0497   290.3
4152.000     0.4276   0.0497   290.3
4153.000     0.4862   0.0497   290.2
4154.000     0.4949   0.0497   290.1
4155.000     0.4983   0.0498   290.1
4156.000     0.5037   0.0499   290.0
4157.000     0.5634   0.0501   290.0
4158.000     0.4489   0.0504   289.9
4159.000     0.4110   0.0508   289.8
4160.000     0.4924   0.0512   289.8
4161.000     0.4298   0.0516   289.7
4162.000     0.3770   0.0519   289.6
4163.000     0.6010   0.0522   289.6
4164.000     0.5322   0.0523   289.5
4165.000     0.4901   0.0523   289.4
4166.000     0.5012   0.0522   289.4
4167.000     0.6096   0.0519   289.3
4168.000     0.5737   0.0515   289.2
4169.000     0.5569   0.0511   289.2
4170.000     0.5227   0.0506   289.1
4171.000     0.4474   0.0501   289.1
4172.000     0.4894   0.0496   289.0
4173.000     0.4448   0.0491   288.9
4174.000     0.5870   0.0488   288.9
4175.000     0.4351   0.0486   288.8
4176.000     0.4220   0.0485   288.7
4177.000     0.4069   0.0486   288.7
4178.000     0.5274   0.0488   288.6
4179.000     0.4091   0.0491   288.5
4180.000     0.5242   0.0494   288.5
4181.000     0.5116   0.0497   288.4
4182.000     0.4901   0.0500   288.4
4183.000     0.6287   0.0503   288.3
4184.000     0.4779   0.0506   288.2
4185.000     0.5328   0.0508   288.2
4186.000     0.4465   0.0509   288.1
4187.000     0.4703   0.0511   288.0
4188.000     0.5514   0.0513   288.0
4189.000     0.4747   0.0514   287.9
4190.000     0.5142   0.0516   287.8
4191.000     0.5530   0.0517   287.8
4192.000     0.5225   0.0518   287.7
4193.000     0.4968   0.0518   287.6
4194.000     0.5201   0.0517   287.6
4195.000     0.4061   0.0515   287.5
4196.000     0.4977   0.0512   287.5
4197.000     0.5623   0.0508   287.4
4198.000     0.5928   0.0504   287.3
4199.000     0.5361   0.0501   287.3
4200.000     0.5067   0.0499   287.2
4201.000     0.5066   0.0498   287.1
4202.000     0.4609   0.0499   287.1
4203.000     0.5498   0.0502   287.0
4204.000     0.5508   0.0505   286.9
4205.000     0.4825   0.0510   286.9
4206.000     0.4353   0.0515   286.8
4207.000     0.5431   0.0520   286.8
4208.000     0.5917   0.0526   286.7
4209.000     0.5060   0.0530   286.6
4210.000     0.5472   0.0533   286.6
4211.000     0.5572   0.0535   286.5
4212.000     0.5893   0.0536   286.4
4213.000     0.5641   0.0537   286.4
4214.000     0.4865   0.0536   286.3
4215.000     0.5814   0.0536   286.2
4216.000     0.5200   0.0536   286.2
4217.000     0.5377   0.0536   286.1
4218.000     0.5842   0.0536   286.0
4219.000     0.4378   0.0536   286.0
4220.000     0.5815   0.0535   285.9
4221.000     0.4752   0.0533   285.9
4222.000     0.4973   0.0528   285.8
4223.000     0.5845   0.0521   285.7
4224.000     0.5757   0.0514   285.7
4225.000     0.4649   0.0506   285.6
4226.000     0.4486   0.0500   285.5
4227.000     0.4206   0.0496   285.5
4228.000     0.4530   0.0495   285.4
4229.000     0.5771   0.0497   285.3
4230.000     0.5111   0.0502   285.3
4231.000     0.4571   0.0508   285.2
4232.000     0.5068   0.0514   285.2
4233.000     0.4496   0.0519   285.1
4234.000     0.5181   0.0523   285.0
4235.000     0.5622   0.0526   285.0
4236.000     0.4530   0.0527   284.9
4237.000     0.5748   0.0529   284.8
4238.000     0.6144   0.0530   284.8
4239.000     0.5818   0.0532   284.7
4240.000     0.5055   0.0535   284.6
4241.000     0.5889   0.0538   284.6
4242.000     0.4885   0.0541   284.5
4243.000     0.4867   0.0544   284.4
4244.000     0.6642   0.0546   284.4
4245.000     0.4774   0.0547   284.3
4246.000     0.5022   0.0546   284.3
4247.000     0.5305   0.0544   284.2
4248.000     0.5468   0.0542   284.1
4249.000     0.6104   0.0539   284.1
4250.000     0.5793   0.0537   284.0
4251.000     0.6076   0.0535   283.9
4252.000     0.5751   0.0534   283.9
4253.000     0.5494   0.0534   283.8
4254.000     0.4599   0.0534   283.7
4255.000     0.5429   0.0535   283.7
4256.000     0.4968   0.0536   283.6
4257.000     0.4982   0.0537   283.6
4258.000     0.5224   0.0538   283.5
4259.000     0.6515   0.0539   283.4
4260.000     0.5946   0.0540   283.4
4261.000     0.5985   0.0543   283.3
4262.000     0.4864   0.0545   283.2
4263.000     0.5486   0.0549   283.2
4264.000     0.5397   0.0552   283.1
4265.000     0.5703   0.0554   283.0
4266.000     0.6011   0.0555   283.0
4267.000     0.5458   0.0554   282.9
4268.000     0.5565   0.0550   282.8
4269.000     0.5807   0.0544   282.8
4270.000     0.5597   0.0538   282.7
4271.000     0.5739   0.0531   282.7
4272.000     0.3815   0.0525   282.6
4273.000     0.4699   0.0521   282.5
4274.000     0.5117   0.0520   282.5
4275.000     0.4681   0.0521   282.4
4276.000     0.4670   0.0524   282.3
4277.000     0.3928   0.0529   282.3
4278.000     0.5688   0.0534   282.2
4279.000     0.5201   0.0538   282.1
4280.000     0.4911   0.0541   282.1
4281.000     0.6364   0.0543   282.0
4282.000     0.5178   0.0543   282.0
4283.000     0.5884   0.0542   281.9
4284.000     0.5513   0.0539   281.8
4285.000     0.5681   0.0535   281.8
4286.000     0.4215   0.0530   281.7
4287.000     0.5167   0.0525   281.6
4288.000     0.4975   0.0521   281.6
4289.000     0.5519   0.0516   281.5
4290.000     0.6560   0.0513   281.4
4291.000     0.5885   0.0511   281.4
4292.000     0.5745   0.0509   281.3
4293.000     0.4323   0.0507   281.2
4294.000     0.5160   0.0505   281.2
4295.000     0.4899   0.0502   281.1
4296.000     0.4267   0.0497   281.1
4297.000     0.5066   0.0491   281.0
4298.000     0.5315   0.0483   280.9
4299.000     0.4897   0.0474   280.9
4300.000     0.5080   0.0465   280.8
4301.000     0.5186   0.0457   280.7
4302.000     0.4330   0.0450   280.7
4303.000     0.5316   0.0445   280.6
4304.000     0.4031   0.0441   280.5
4305.000     0.4291   0.0439   280.5
4306.000     0.4359   0.0438   280.4
4307.000     0.4197   0.0439   280.4
4308.000     0.3753   0.0442   280.3
4309.000     0.4932   0.0446   280.2
4310.000     0.5370   0.0453   280.2
4311.000     0.4858   0.0463   280.1
4312.000     0.4801   0.0475   280.0
4313.000     0.4714   0.0489   280.0
4314.000     0.5292   0.0506   279.9
4315.000     0.5538   0.0523   279.8
4316.000     0.5302   0.0540   279.8
4317.000     0.5216   0.0555   279.7
4318.000     0.4224   0.0567   279.6
4319.000     0.5735   0.0575   279.6
4320.000     0.6605   0.0579   279.5
4321.000     0.5821   0.0579   279.5
4322.000     0.4861   0.0575   279.4
4323.000     0.5219   0.0569   279.3
4324.000     0.4720   0.0562   279.3
4325.000     0.4409   0.0556   279.2
4326.000     0.6356   0.0552   279.1
4327.000     0.5609   0.0551   279.1
4328.000     0.5786   0.0553   279.0
4329.000     0.4340   0.0557   278.9
4330.000     0.5921   0.0562   278.9
4331.000     0.6053   0.0566   278.8
4332.000     0.6392   0.0568   278.8
4333.000     0.5080   0.0567   278.7
4334.000     0.4911   0.0563   278.6
4335.000     0.6259   0.0555   278.6
4336.000     0.5786   0.0544   278.5
4337.000     0.5141   0.0530   278.4
4338.000     0.5543   0.0515   278.4
4339.000     0.5904   0.0502   278.3
4340.000     0.5067   0.0492   278.2
4341.000     0.5117   0.0486   278.2
4342.000     0.5308   0.0485   278.1
4343.000     0.5261   0.0490   278.0
4344.000     0.4916   0.0499   278.0
4345.000     0.5150   0.0511   277.9
4346.000     0.4251   0.0524   277.9
4347.000     0.4661   0.0537   277.8
4348.000     0.6904   0.0548   277.7
4349.000     0.5228   0.0557   277.7
4350.000     0.4667   0.0563   277.6
4351.000     0.6446   0.0568   277.5
4352.000     0.6740   0.0571   277.5
4353.000     0.4988   0.0574   277.4
4354.000     0.5795   0.0578   277.3
4355.000     0.5689   0.0582   277.3
4356.000     0.5688   0.0587   277.2
4357.000     0.5429   0.0593   277.2
4358.000     0.5496   0.0599   277.1
4359.000     0.5761   0.0606   277.0
4360.000     0.6464   0.0613   277.0
4361.000     0.6069   0.0619   276.9
4362.000     0.6384   0.0624   276.8
4363.000     0.6380   0.0628   276.8
4364.000     0.6190   0.0631   276.7
4365.000     0.5917   0.0633   276.6
4366.000     0.5788   0.0633   276.6
4367.000     0.6082   0.0632   276.5
4368.000     0.6281   0.0629   276.4
4369.000     0.5360   0.0626   276.4
4370.000     0.5727   0.0622   276.3
4371.000     0.6779   0.0617   276.3
4372.000     0.5632   0.0613   276.2
4373.000     0.6174   0.0610   276.1
4374.000     0.5207   0.0607   276.1
4375.000     0.6819   0.0606   276.0
4376.000     0.6862   0.0604   275.9
4377.000     0.6192   0.0604   275.9
4378.000     0.6102   0.0603   275.8
4379.000     0.6286   0.0601   275.7
4380.000     0.5891   0.0597   275.7
4381.000     0.5502   0.0592   275.6
4382.000     0.6369   0.0586   275.6
4383.000     0.5378   0.0580   275.5
4384.000     0.5982   0.0574   275.4
4385.000     0.6430   0.0570   275.4
4386.000     0.5009   0.0569   275.3
4387.000     0.5617   0.0570   275.2
4388.000     0.5744   0.0574   275.2
4389.000     0.4541   0.0579   275.1
4390.000     0.5562   0.0585   275.0
4391.000     0.5959   0.0592   275.0
4392.000     0.5207   0.0598   274.9
4393.000     0.6642   0.0604   274.8
4394.000     0.7103   0.0609   274.8
4395.000     0.7037   0.0613   274.7
4396.000     0.7451   0.0617   274.7
4397.000     0.6010   0.0619   274.6
4398.000     0.6946   0.0621   274.5
4399.000     0.6423   0.0621   274.5
4400.000     0.5440   0.0621   274.4
4401.000     0.5605   0.0619   274.3
4402.000     0.5920   0.0617   274.3
4403.000     0.5050   0.0614   274.2
4404.000     0.6108   0.0612   274.1
4405.000     0.6128   0.0611   274.1
4406.000     0.7872   0.0611   274.0
4407.000     0.6310   0.0612   274.0
4408.000     0.7008   0.0615   273.9
4409.000     0.6544   0.0620   273.8
4410.000     0.5820   0.0625   273.8
4411.000     0.5690   0.0630   273.7
4412.000     0.5983   0.0635   273.6
4413.000     0.6170   0.0638   273.6
4414.000     0.7157   0.0641   273.5
4415.000     0.7230   0.0643   273.4
4416.000     0.6186   0.0644   273.4
4417.000     0.6289   0.0645   273.3
4418.000     0.5946   0.0646   273.2
4419.000     0.6357   0.0648   273.2
4420.000     0.6680   0.0650   273.1
4421.000     0.6159   0.0652   273.1
4422.000     0.6631   0.0654   273.0
4423.000     0.6133   0.0655   272.9
4424.000     0.7446   0.0656   272.9
4425.000     0.6713   0.0656   272.8
4426.000     0.6186   0.0656   272.7
4427.000     0.7490   0.0656   272.7
4428.000     0.5402   0.0655   272.6
4429.000     0.6455   0.0654   272.5
4430.000     0.7542   0.0653   272.5
4431.000     0.7326   0.0652   272.4
4432.000     0.7028   0.0650   272.4
4433.000     0.6471   0.0650   272.3
4434.000     0.7165   0.0649   272.2
4435.000     0.6979   0.0650   272.2
4436.000     0.7227   0.0651   272.1
4437.000     0.5863   0.0653   272.0
4438.000     0.7301   0.0656   272.0
4439.000     0.5980   0.0658   271.9
4440.000     0.5753   0.0661   271.8
4441.000     0.6616   0.0662   271.8
4442.000     0.6586   0.0663   271.7
4443.000     0.7501   0.0664   271.6
4444.000     0.6511   0.0665   271.6
4445.000     0.6886   0.0667   271.5
4446.000     0.6006   0.0669   271.5
4447.000     0.5875   0.0671   271.4
4448.000     0.6482   0.0673   271.3
4449.000     0.7136   0.0674   271.3
4450.000     0.8502   0.0674   271.2
4451.000     0.6005   0.0672   271.1
4452.000     0.7908   0.0669   271.1
4453.000     0.6450   0.0664   271.0
4454.000     0.7529   0.0659   270.9
4455.000     0.5558   0.0653   270.9
4456.000     0.6645   0.0647   270.8
4457.000     0.6530   0.0643   270.8
4458.000     0.6103   0.0639   270.7
4459.000     0.6196   0.0637   270.6
4460.000     0.6367   0.0637   270.6
4461.000     0.6461   0.0638   270.5
4462.000     0.5180   0.0640   270.4
4463.000     0.5621   0.0644   270.4
4464.000     0.5900   0.0648   270.3
4465.000     0.4706   0.0652   270.2
4466.000     0.5657   0.0657   270.2
4467.000     0.7107   0.0661   270.1
4468.000     0.6866   0.0666   270.0
4469.000     0.6081   0.0671   270.0
4470.000     0.7399   0.0676   269.9
4471.000     0.6816   0.0682   269.9
4472.000     0.6235   0.0689   269.8
4473.000     0.7388   0.0695   269.7
4474.000     0.7955   0.0702   269.7
4475.000     0.6818   0.0707   269.6
4476.000     0.7634   0.0711   269.5
4477.000     0.7340   0.0713   269.5
4478.000     0.7366   0.0713   269.4
4479.000     0.6223   0.0712   269.3
4480.000     0.6123   0.0710   269.3
4481.000     0.6280   0.0707   269.2
4482.000     0.7276   0.0706   269.2
4483.000     0.6997   0.0705   269.1
4484.000     0.6914   0.0705   269.0
4485.000     0.7971   0.0706   269.0
4486.000     0.8158   0.0707   268.9
4487.000     0.5742   0.0708   268.8
4488.000     0.5566   0.0709   268.8
4489.000     0.6759   0.0709   268.7
4490.000     0.7396   0.0708   268.6
4491.000     0.7484   0.0707   268.6
4492.000     0.6872   0.0706   268.5
4493.000     0.5550   0.0706   268.4
4494.000     0.8394   0.0706   268.4
4495.000     0.6575   0.0707   268.3
4496.000     0.7342   0.0709   268.3
4497.000     0.7134   0.0712   268.2
4498.000     0.6922   0.0716   268.1
4499.000     0.8018   0.0721   268.1
4500.000     0.8191   0.0727   268.0
4501.000     0.6324   0.0733   267.9
4502.000     0.5483   0.0740   267.9
4503.000     0.6965   0.0746   267.8
4504.000     0.7776   0.0752   267.7
4505.000     0.7779   0.0757   267.7
4506.000     0.7881   0.0761   267.6
4507.000     0.8502   0.0764   267.6
4508.000     0.8435   0.0765   267.5
4509.000     0.7314   0.0765   267.4
4510.000     0.6578   0.0764   267.4
4511.000     0.7038   0.0762   267.3
4512.000     0.8504   0.0760   267.2
4513.000     0.7024   0.0756   267.2
4514.000     0.8391   0.0753   267.1
4515.000     0.8006   0.0750   267.0
4516.000     0.9089   0.0746   267.0
4517.000     0.7428   0.0744   266.9
4518.000     0.5679   0.0741   266.8
4519.000     0.8880   0.0739   266.8
4520.000     0.7387   0.0736   266.7
4521.000     0.7241   0.0733   266.7
4522.000     0.8345   0.0729   266.6
4523.000     0.6994   0.0725   266.5
4524.000     0.6418   0.0719   266.5
4525.000     0.6872   0.0712   266.4
4526.000     0.7464   0.0705   266.3
4527.000     0.6710   0.0698   266.3
4528.000     0.8187   0.0692   266.2
4529.000     0.6202   0.0687   266.1
4530.000     0.6301   0.0684   266.1
4531.000     0.5876   0.0682   266.0
4532.000     0.8130   0.0682   266.0
4533.000     0.8028   0.0684   265.9
4534.000     0.6668   0.0688   265.8
4535.000     0.6311   0.0693   265.8
4536.000     0.5738   0.0699   265.7
4537.000     0.8089   0.0706   265.6
4538.000     0.7583   0.0713   265.6
